#z (m)	r (m)	phi (deg) 	Br (T)	Bphi (T)	Bz (T)	B (T)	probeID	Date (DDMMYYY)	Time (24-HH:MM:SS)
3.5719934080	0.0000000000	0.0000000000	-0.0073546774	0.0080466222	1.7342920000	1.7343262613	0	22032018	91057
3.5719965820	0.0000000000	0.0000000000	-0.0077329568	0.0081428990	1.7343130000	1.7343493556	0	22032018	91046
3.5719965820	0.0000000000	0.0000000000	-0.0100265834	0.0119820412	1.7339120000	1.7339823890	0	22032018	91537
3.5719980470	0.0000000000	0.0000000000	-0.0062843585	0.0078789573	1.7342350000	1.7342642839	0	22032018	91120
3.5719980470	0.0000000000	0.0000000000	-0.0055265996	0.0074790906	1.7342250000	1.7342499332	0	22032018	91131
3.5719980470	0.0000000000	0.0000000000	-0.0068469622	0.0079043263	1.7343040000	1.7343355280	0	22032018	91108
3.5719997560	0.0000000000	0.0000000000	-0.0082899283	0.0098912588	1.7338290000	1.7338770317	0	22032018	91633
3.5719997560	0.0000000000	0.0000000000	-0.0045976083	0.0114155319	1.7342850000	1.7343286637	0	22032018	91334
3.5720000000	0.0000000000	0.0000000000	-0.0088801485	0.0123673641	1.7334760000	1.7335428611	0	22032018	91509
3.5720012210	0.0000000000	0.0000000000	-0.0048115603	0.0073981411	1.7342350000	1.7342574546	0	22032018	91142
3.5720012210	0.0000000000	0.0000000000	-0.0082209188	0.0093515305	1.7339000000	1.7339447063	0	22032018	91706
3.5720012210	0.0000000000	0.0000000000	-0.0042977950	0.0079111107	1.7343440000	1.7343673680	0	22032018	91153
3.5720029300	0.0000000000	0.0000000000	-0.0038251633	0.0085317370	1.7344140000	1.7344392021	0	22032018	91227
3.5720029300	0.0000000000	0.0000000000	-0.0070800831	0.0129891336	1.7340510000	1.7341141011	0	22032018	91441
3.5720029300	0.0000000000	0.0000000000	-0.0045088462	0.0095287076	1.7343770000	1.7344090360	0	22032018	91300
3.5720029300	0.0000000000	0.0000000000	-0.0081433913	0.0088320392	1.7339480000	1.7339896154	0	22032018	91718
3.5720029300	0.0000000000	0.0000000000	-0.0054667277	0.0128952896	1.7341590000	1.7342155607	0	22032018	91408
3.5720029300	0.0000000000	0.0000000000	-0.0044532829	0.0090222030	1.7344580000	1.7344871823	0	22032018	91249
3.5720029300	0.0000000000	0.0000000000	-0.0035978617	0.0078279390	1.7343520000	1.7343733973	0	22032018	91216
3.5720029300	0.0000000000	0.0000000000	-0.0039027443	0.0076085047	1.7344180000	1.7344390792	0	22032018	91204
3.5720029300	0.0000000000	0.0000000000	-0.0041919932	0.0086392312	1.7343090000	1.7343355836	0	22032018	91238
3.5720029300	0.0000000000	0.0000000000	-0.0050213548	0.0125411217	1.7341580000	1.7342106166	0	22032018	91357
3.5720029300	0.0000000000	0.0000000000	-0.0048079607	0.0119766935	1.7343580000	1.7344060164	0	22032018	91345
3.5720031740	0.0000000000	0.0000000000	-0.0066324981	0.0126159433	1.7336420000	1.7337005901	0	22032018	91436
3.5720031740	0.0000000000	0.0000000000	-0.0075075277	0.0128523669	1.7335460000	1.7336098986	0	22032018	91447
3.5720031740	0.0000000000	0.0000000000	-0.0043977890	0.0097934871	1.7338540000	1.7338872357	0	22032018	91306
3.5720031740	0.0000000000	0.0000000000	-0.0080413010	0.0098399626	1.7333710000	1.7334175813	0	22032018	91701
3.5720031740	0.0000000000	0.0000000000	-0.0052753203	0.0127384908	1.7336470000	1.7337018252	0	22032018	91402
3.5720031740	0.0000000000	0.0000000000	-0.0094280857	0.0119878902	1.7334550000	1.7335220897	0	22032018	91520
3.5720031740	0.0000000000	0.0000000000	-0.0097191638	0.0116220449	1.7334600000	1.7335262056	0	22032018	91543
3.5720031740	0.0000000000	0.0000000000	-0.0085972630	0.0109108615	1.7332650000	1.7333206628	0	22032018	91616
3.5720031740	0.0000000000	0.0000000000	-0.0079494778	0.0104768995	1.7333250000	1.7333748917	0	22032018	91638
3.5720043950	0.0000000000	0.0000000000	-0.0043602139	0.0101668485	1.7343700000	1.7344052794	0	22032018	91312
3.5720043950	0.0000000000	0.0000000000	-0.0084728618	0.0126217913	1.7339800000	1.7340466370	0	22032018	91504
3.5720043950	0.0000000000	0.0000000000	-0.0079885318	0.0108853242	1.7338750000	1.7339275713	0	22032018	91622
3.5720043950	0.0000000000	0.0000000000	-0.0062436854	0.0129300296	1.7342200000	1.7342794405	0	22032018	91430
3.5720043950	0.0000000000	0.0000000000	-0.0043851484	0.0109159005	1.7343110000	1.7343508962	0	22032018	91323
3.5720043950	0.0000000000	0.0000000000	-0.0057158121	0.0133891155	1.7341990000	1.7342601046	0	22032018	91419
3.5720043950	0.0000000000	0.0000000000	-0.0090764226	0.0124210377	1.7340720000	1.7341402379	0	22032018	91515
3.5720043950	0.0000000000	0.0000000000	-0.0080221122	0.0102101991	1.7338130000	1.7338616212	0	22032018	91644
3.5720043950	0.0000000000	0.0000000000	-0.0093255444	0.0111785276	1.7339720000	1.7340331087	0	22032018	91548
3.5720043950	0.0000000000	0.0000000000	-0.0081423346	0.0095494771	1.7338290000	1.7338744163	0	22032018	91655
3.5720043950	0.0000000000	0.0000000000	-0.0087430932	0.0111504199	1.7338770000	1.7339348963	0	22032018	91610
3.5720048830	0.0000000000	0.0000000000	-0.0040005028	0.0084784873	1.7337560000	1.7337813462	0	22032018	91232
3.5720048830	0.0000000000	0.0000000000	-0.0087696197	0.0108587980	1.7333730000	1.7334291958	0	22032018	91554
3.5720048830	0.0000000000	0.0000000000	-0.0044210529	0.0107334883	1.7338310000	1.7338698596	0	22032018	91317
3.5720048830	0.0000000000	0.0000000000	-0.0056711425	0.0129342844	1.7337610000	1.7338185207	0	22032018	91413
3.5720048830	0.0000000000	0.0000000000	-0.0037196483	0.0080653802	1.7337090000	1.7337317505	0	22032018	91210
3.5720048830	0.0000000000	0.0000000000	-0.0049519943	0.0122328942	1.7337030000	1.7337532287	0	22032018	91351
3.5720048830	0.0000000000	0.0000000000	-0.0082151718	0.0092506243	1.7334810000	1.7335251485	0	22032018	91650
3.5720048830	0.0000000000	0.0000000000	-0.0044601464	0.0091241196	1.7339100000	1.7339397425	0	22032018	91255
3.5720061040	0.0000000000	0.0000000000	-0.0081306883	0.0114421771	1.7337980000	1.7338548198	0	22032018	91559
3.5720061040	0.0000000000	0.0000000000	-0.0078282862	0.0124600312	1.7340960000	1.7341584333	0	22032018	91452
3.5720061040	0.0000000000	0.0000000000	-0.0096976434	0.0124571986	1.7339410000	1.7340128655	0	22032018	91526
3.5720063480	0.0000000000	0.0000000000	-0.0081553083	0.0102668895	1.7333650000	1.7334145901	0	22032018	91627
3.5720063480	0.0000000000	0.0000000000	-0.0065758668	0.0078777941	1.7335730000	1.7336033710	0	22032018	91114
3.5720063480	0.0000000000	0.0000000000	-0.0099104831	0.0118925398	1.7334510000	1.7335201238	0	22032018	91532
3.5720063480	0.0000000000	0.0000000000	-0.0086370000	0.0109840000	1.7332940000	1.7333503213	0	22032018	91605
3.5720080570	0.0000000000	0.0000000000	-0.0051897633	0.0076269337	1.7336010000	1.7336255452	0	22032018	91137
3.5720080570	0.0000000000	0.0000000000	-0.0082692274	0.0129527220	1.7335740000	1.7336421103	0	22032018	91458
3.5720080570	0.0000000000	0.0000000000	-0.0059293813	0.0077153231	1.7335640000	1.7335913088	0	22032018	91125
3.5720080570	0.0000000000	0.0000000000	-0.0060030000	0.0131490000	1.7336950000	1.7337552553	0	22032018	91425
3.5720080570	0.0000000000	0.0000000000	-0.0043300000	0.0086910000	1.7338700000	1.7338971882	0	22032018	91244
3.5720080570	0.0000000000	0.0000000000	-0.0078932504	0.0083672581	1.7334660000	1.7335041643	0	22032018	91017
3.5720095210	0.0000000000	0.0000000000	-0.0045955594	0.0076314519	1.7337150000	1.7337378866	0	22032018	91148
3.5720095210	0.0000000000	0.0000000000	-0.0074760000	0.0090250000	1.7334100000	1.7334496154	0	22032018	91103
3.5720095210	0.0000000000	0.0000000000	-0.0080063349	0.0084775890	1.7334670000	1.7335062189	0	22032018	91723
3.5720095210	0.0000000000	0.0000000000	-0.0046809470	0.0116153244	1.7336950000	1.7337402285	0	22032018	91340
3.5720095210	0.0000000000	0.0000000000	-0.0041359062	0.0076490461	1.7336910000	1.7337128070	0	22032018	91159
3.5720095210	0.0000000000	0.0000000000	-0.0081985183	0.0094457497	1.7333730000	1.7334181247	0	22032018	91712
3.5720112300	0.0000000000	0.0000000000	-0.0044433656	0.0111153598	1.7337600000	1.7338013244	0	22032018	91328
3.5720112300	0.0000000000	0.0000000000	-0.0036718407	0.0081737829	1.7338180000	1.7338411549	0	22032018	91221
3.5720144040	0.0000000000	0.0000000000	-0.0076442524	0.0084243960	1.7333740000	1.7334113271	0	22032018	91052
3.5719980470	0.0300000000	5.0000000000	0.0864160000	0.0103860000	1.7370340000	1.7392132449	1	22032018	91108
3.5720063480	0.0300000000	10.0000000000	0.0876210000	0.0106690000	1.7362920000	1.7385342034	1	22032018	91114
3.5719980470	0.0300000000	15.0000000000	0.0887530000	0.0110770000	1.7369410000	1.7392423156	1	22032018	91120
3.5720080570	0.0300000000	20.0000000000	0.0898550000	0.0112110000	1.7361890000	1.7385487774	1	22032018	91125
3.5719980470	0.0300000000	25.0000000000	0.0909060000	0.0109990000	1.7368210000	1.7392331830	1	22032018	91131
3.5720080570	0.0300000000	30.0000000000	0.0920930000	0.0111580000	1.7361600000	1.7386365828	1	22032018	91137
3.5720012210	0.0300000000	35.0000000000	0.0929850000	0.0108330000	1.7368030000	1.7393240713	1	22032018	91142
3.5720095210	0.0300000000	40.0000000000	0.0939940000	0.0107660000	1.7361550000	1.7387308483	1	22032018	91148
3.5720012210	0.0300000000	45.0000000000	0.0950380000	0.0107590000	1.7367450000	1.7393766621	1	22032018	91153
3.5720095210	0.0300000000	50.0000000000	0.0957370000	0.0101990000	1.7360510000	1.7387186855	1	22032018	91159
3.5720029300	0.0300000000	55.0000000000	0.0963680000	0.0096160000	1.7368380000	1.7395360005	1	22032018	91204
3.5720048830	0.0300000000	60.0000000000	0.0974940000	0.0094050000	1.7361020000	1.7388627572	1	22032018	91210
3.5720029300	0.0300000000	65.0000000000	0.0979800000	0.0087140000	1.7366860000	1.7394695389	1	22032018	91216
3.5720112300	0.0300000000	70.0000000000	0.0988040000	0.0082270000	1.7360790000	1.7389077630	1	22032018	91221
3.5720029300	0.0300000000	75.0000000000	0.0997080000	0.0079860000	1.7365180000	1.7393965120	1	22032018	91227
3.5720048830	0.0300000000	80.0000000000	0.1001630000	0.0073950000	1.7359900000	1.7388929216	1	22032018	91232
3.5720029300	0.0300000000	85.0000000000	0.1007190000	0.0067340000	1.7364870000	1.7394185134	1	22032018	91238
3.5720080570	0.0300000000	90.0000000000	0.1012610000	0.0060990000	1.7360220000	1.7389834307	1	22032018	91244
3.5720029300	0.0300000000	95.0000000000	0.1020600000	0.0053220000	1.7364900000	1.7394947793	1	22032018	91249
3.5720048830	0.0300000000	100.0000000000	0.1025920000	0.0042810000	1.7359060000	1.7389402193	1	22032018	91255
3.5720029300	0.0300000000	105.0000000000	0.1033610000	0.0033430000	1.7362740000	1.7393510500	1	22032018	91300
3.5720031740	0.0300000000	110.0000000000	0.1036420000	0.0024920000	1.7356680000	1.7387614214	1	22032018	91306
3.5720043950	0.0300000000	115.0000000000	0.1036400000	0.0015820000	1.7362120000	1.7393032689	1	22032018	91312
3.5720048830	0.0300000000	120.0000000000	0.1044950000	0.0001760000	1.7354670000	1.7386100610	1	22032018	91317
3.5720043950	0.0300000000	125.0000000000	0.1040090000	-0.0005670000	1.7359970000	1.7391100533	1	22032018	91323
3.5720112300	0.0300000000	130.0000000000	0.1040130000	-0.0014720000	1.7354140000	1.7385288673	1	22032018	91328
3.5719997560	0.0300000000	135.0000000000	0.1041170000	-0.0027080000	1.7359080000	1.7390296914	1	22032018	91334
3.5720095210	0.0300000000	140.0000000000	0.1036520000	-0.0034740000	1.7352410000	1.7383374626	1	22032018	91340
3.5720029300	0.0300000000	145.0000000000	0.1037400000	-0.0049250000	1.7358290000	1.7389331673	1	22032018	91345
3.5720048830	0.0300000000	150.0000000000	0.1031990000	-0.0057970000	1.7351470000	1.7382228713	1	22032018	91351
3.5720029300	0.0300000000	155.0000000000	0.1028400000	-0.0070970000	1.7356140000	1.7386725943	1	22032018	91357
3.5720031740	0.0300000000	160.0000000000	0.1022000000	-0.0080670000	1.7351550000	1.7381808854	1	22032018	91402
3.5720029300	0.0300000000	165.0000000000	0.1014800000	-0.0089180000	1.7356420000	1.7386290212	1	22032018	91408
3.5720048830	0.0300000000	170.0000000000	0.1005360000	-0.0096680000	1.7352360000	1.7381728721	1	22032018	91413
3.5720043950	0.0300000000	175.0000000000	0.0996760000	-0.0109730000	1.7357170000	1.7386112894	1	22032018	91419
3.5720080570	0.0300000000	180.0000000000	0.0987550000	-0.0111450000	1.7352660000	1.7381095627	1	22032018	91425
3.5720043950	0.0300000000	185.0000000000	0.0978230000	-0.0115010000	1.7357380000	1.7385304188	1	22032018	91430
3.5720031740	0.0300000000	190.0000000000	0.0970460000	-0.0117240000	1.7351810000	1.7379322429	1	22032018	91436
3.5720029300	0.0300000000	195.0000000000	0.0961000000	-0.0124510000	1.7355550000	1.7382581498	1	22032018	91441
3.5720031740	0.0300000000	200.0000000000	0.0953040000	-0.0126970000	1.7350190000	1.7376809248	1	22032018	91447
3.5720061040	0.0300000000	205.0000000000	0.0943320000	-0.0127090000	1.7355750000	1.7381831392	1	22032018	91452
3.5720080570	0.0300000000	210.0000000000	0.0931810000	-0.0132690000	1.7350880000	1.7376389535	1	22032018	91458
3.5720043950	0.0300000000	215.0000000000	0.0921840000	-0.0132170000	1.7356400000	1.7381365851	1	22032018	91504
3.5720000000	0.0300000000	220.0000000000	0.0912120000	-0.0130500000	1.7351040000	1.7375487971	1	22032018	91509
3.5720043950	0.0300000000	225.0000000000	0.0899900000	-0.0130440000	1.7357010000	1.7380812143	1	22032018	91515
3.5720031740	0.0300000000	230.0000000000	0.0890710000	-0.0128090000	1.7352840000	1.7376156866	1	22032018	91520
3.5720061040	0.0300000000	235.0000000000	0.0874890000	-0.0127480000	1.7358330000	1.7380831512	1	22032018	91526
3.5720063480	0.0300000000	240.0000000000	0.0865460000	-0.0122090000	1.7353570000	1.7375566717	1	22032018	91532
3.5719965820	0.0300000000	245.0000000000	0.0851790000	-0.0117090000	1.7359660000	1.7380939318	1	22032018	91537
3.5720031740	0.0300000000	250.0000000000	0.0843970000	-0.0108390000	1.7356170000	1.7377015590	1	22032018	91543
3.5720043950	0.0300000000	255.0000000000	0.0836680000	-0.0097380000	1.7361050000	1.7381472130	1	22032018	91548
3.5720048830	0.0300000000	260.0000000000	0.0830030000	-0.0087320000	1.7355160000	1.7375216638	1	22032018	91554
3.5720061040	0.0300000000	265.0000000000	0.0819240000	-0.0075590000	1.7361480000	1.7380962454	1	22032018	91559
3.5720063480	0.0300000000	270.0000000000	0.0816720000	-0.0072560000	1.7355540000	1.7374897560	1	22032018	91605
3.5720043950	0.0300000000	275.0000000000	0.0810850000	-0.0067280000	1.7363920000	1.7382972188	1	22032018	91610
3.5720031740	0.0300000000	280.0000000000	0.0809110000	-0.0057510000	1.7357280000	1.7376223278	1	22032018	91616
3.5720043950	0.0300000000	285.0000000000	0.0807730000	-0.0042220000	1.7362910000	1.7381739095	1	22032018	91622
3.5720063480	0.0300000000	290.0000000000	0.0807710000	-0.0033370000	1.7357520000	1.7376334756	1	22032018	91627
3.5719997560	0.0300000000	295.0000000000	0.0805840000	-0.0022410000	1.7363200000	1.7381904227	1	22032018	91633
3.5720031740	0.0300000000	300.0000000000	0.0804200000	-0.0009730000	1.7359110000	1.7377730931	1	22032018	91638
3.5720043950	0.0300000000	305.0000000000	0.0805270000	0.0000820000	1.7364140000	1.7382802374	1	22032018	91644
3.5720048830	0.0300000000	310.0000000000	0.0807920000	0.0009530000	1.7359560000	1.7378352883	1	22032018	91650
3.5720043950	0.0300000000	315.0000000000	0.0808350000	0.0020900000	1.7364650000	1.7383467323	1	22032018	91655
3.5720031740	0.0300000000	320.0000000000	0.0810510000	0.0032020000	1.7360830000	1.7379768987	1	22032018	91701
3.5720012210	0.0300000000	325.0000000000	0.0812740000	0.0040840000	1.7365810000	1.7384866153	1	22032018	91706
3.5720095210	0.0300000000	330.0000000000	0.0816430000	0.0050810000	1.7361550000	1.7380810050	1	22032018	91712
3.5720029300	0.0300000000	335.0000000000	0.0820220000	0.0057960000	1.7367140000	1.7386594606	1	22032018	91718
3.5720080570	0.0300000000	340.0000000000	0.0825730000	0.0066950000	1.7363160000	1.7382912228	1	22032018	91017
3.5720095210	0.0300000000	340.0000000000	0.0825590000	0.0066790000	1.7362040000	1.7381786235	1	22032018	91723
3.5719965820	0.0300000000	345.0000000000	0.0831720000	0.0075650000	1.7371650000	1.7391713682	1	22032018	91046
3.5720144040	0.0300000000	350.0000000000	0.0839180000	0.0085600000	1.7362030000	1.7382509490	1	22032018	91052
3.5719934080	0.0300000000	355.0000000000	0.0846400000	0.0091320000	1.7370680000	1.7391528281	1	22032018	91057
3.5720095210	0.0300000000	360.0000000000	0.0853710000	0.0105420000	1.7362290000	1.7383585596	1	22032018	91103
3.5720043950	0.0600000000	5.0000000000	0.1913880000	0.0017290000	1.7529780000	1.7633956517	2	22032018	91610
3.5720031740	0.0600000000	10.0000000000	0.1926050000	0.0022340000	1.7523080000	1.7628627297	2	22032018	91616
3.5720043950	0.0600000000	15.0000000000	0.1942250000	0.0026180000	1.7527420000	1.7634723483	2	22032018	91622
3.5720063480	0.0600000000	20.0000000000	0.1951090000	0.0023430000	1.7521100000	1.7629414238	2	22032018	91627
3.5719997560	0.0600000000	25.0000000000	0.1960460000	0.0022470000	1.7525560000	1.7634884792	2	22032018	91633
3.5720031740	0.0600000000	30.0000000000	0.1979040000	0.0029320000	1.7517970000	1.7629428008	2	22032018	91638
3.5720043950	0.0600000000	35.0000000000	0.1989930000	0.0027480000	1.7521670000	1.7634327210	2	22032018	91644
3.5720048830	0.0600000000	40.0000000000	0.1993930000	0.0019240000	1.7519260000	1.7632373577	2	22032018	91650
3.5720043950	0.0600000000	45.0000000000	0.2008170000	0.0021620000	1.7520250000	1.7634975879	2	22032018	91655
3.5720031740	0.0600000000	50.0000000000	0.2023140000	0.0022770000	1.7513910000	1.7630390166	2	22032018	91701
3.5720012210	0.0600000000	55.0000000000	0.2028210000	0.0017220000	1.7519160000	1.7636181544	2	22032018	91706
3.5720095210	0.0600000000	60.0000000000	0.2040980000	0.0015050000	1.7511760000	1.7630302441	2	22032018	91712
3.5720029300	0.0600000000	65.0000000000	0.2044830000	0.0007330000	1.7517900000	1.7636842231	2	22032018	91718
3.5720080570	0.0600000000	70.0000000000	0.2049040000	-0.0001480000	1.7514020000	1.7633475655	2	22032018	91017
3.5720095210	0.0600000000	70.0000000000	0.2050440000	0.0000060000	1.7513000000	1.7632625250	2	22032018	91723
3.5719965820	0.0600000000	75.0000000000	0.2056440000	-0.0007940000	1.7521650000	1.7641916768	2	22032018	91046
3.5720144040	0.0600000000	80.0000000000	0.2068860000	-0.0013490000	1.7508670000	1.7630481810	2	22032018	91052
3.5719934080	0.0600000000	85.0000000000	0.2072450000	-0.0023230000	1.7517670000	1.7639851214	2	22032018	91057
3.5720095210	0.0600000000	90.0000000000	0.2101550000	-0.0030010000	1.7501060000	1.7626812364	2	22032018	91103
3.5719980470	0.0600000000	95.0000000000	0.2083990000	-0.0042760000	1.7514530000	1.7638129262	2	22032018	91108
3.5720063480	0.0600000000	100.0000000000	0.2089490000	-0.0054120000	1.7506330000	1.7630668947	2	22032018	91114
3.5719980470	0.0600000000	105.0000000000	0.2092950000	-0.0064600000	1.7512600000	1.7637340265	2	22032018	91120
3.5720080570	0.0600000000	110.0000000000	0.2094980000	-0.0076270000	1.7504630000	1.7629714398	2	22032018	91125
3.5719980470	0.0600000000	115.0000000000	0.2092010000	-0.0085990000	1.7512800000	1.7637518645	2	22032018	91131
3.5720080570	0.0600000000	120.0000000000	0.2094960000	-0.0098920000	1.7504780000	1.7629973494	2	22032018	91137
3.5720012210	0.0600000000	125.0000000000	0.2090110000	-0.0107450000	1.7512890000	1.7637500431	2	22032018	91142
3.5720095210	0.0600000000	130.0000000000	0.2090050000	-0.0117920000	1.7505530000	1.7630252259	2	22032018	91148
3.5720012210	0.0600000000	135.0000000000	0.2090740000	-0.0131320000	1.7511030000	1.7635889837	2	22032018	91153
3.5720095210	0.0600000000	140.0000000000	0.2084670000	-0.0137290000	1.7504970000	1.7629199422	2	22032018	91159
3.5720029300	0.0600000000	145.0000000000	0.2077720000	-0.0143890000	1.7513430000	1.7636832343	2	22032018	91204
3.5720048830	0.0600000000	150.0000000000	0.2074660000	-0.0156980000	1.7505210000	1.7628421199	2	22032018	91210
3.5720029300	0.0600000000	155.0000000000	0.2066970000	-0.0161150000	1.7512470000	1.7634765091	2	22032018	91216
3.5720112300	0.0600000000	160.0000000000	0.2063370000	-0.0170070000	1.7505830000	1.7627833206	2	22032018	91221
3.5720029300	0.0600000000	165.0000000000	0.2060070000	-0.0179560000	1.7511180000	1.7632854426	2	22032018	91227
3.5720048830	0.0600000000	170.0000000000	0.2054550000	-0.0182470000	1.7503850000	1.7624960591	2	22032018	91232
3.5720029300	0.0600000000	175.0000000000	0.2048470000	-0.0187140000	1.7509870000	1.7630280716	2	22032018	91238
3.5720080570	0.0600000000	180.0000000000	0.2042190000	-0.0191580000	1.7503740000	1.7623511480	2	22032018	91244
3.5720029300	0.0600000000	185.0000000000	0.2034890000	-0.0197740000	1.7509690000	1.7628644937	2	22032018	91249
3.5720048830	0.0600000000	190.0000000000	0.2024110000	-0.0201650000	1.7504270000	1.7622064358	2	22032018	91255
3.5720029300	0.0600000000	195.0000000000	0.2015320000	-0.0208070000	1.7510160000	1.7626982472	2	22032018	91300
3.5720031740	0.0600000000	200.0000000000	0.2004470000	-0.0213950000	1.7504040000	1.7619735835	2	22032018	91306
3.5720043950	0.0600000000	205.0000000000	0.1992070000	-0.0218640000	1.7510440000	1.7624745539	2	22032018	91312
3.5720048830	0.0600000000	210.0000000000	0.1980510000	-0.0224190000	1.7506090000	1.7619190336	2	22032018	91317
3.5720043950	0.0600000000	215.0000000000	0.1967910000	-0.0225620000	1.7511220000	1.7622894202	2	22032018	91323
3.5720112300	0.0600000000	220.0000000000	0.1955550000	-0.0225950000	1.7506030000	1.7616364993	2	22032018	91328
3.5719997560	0.0600000000	225.0000000000	0.1943220000	-0.0225850000	1.7513270000	1.7622194480	2	22032018	91334
3.5720095210	0.0600000000	230.0000000000	0.1931090000	-0.0223420000	1.7507900000	1.7615492826	2	22032018	91340
3.5720029300	0.0600000000	235.0000000000	0.1917550000	-0.0221230000	1.7516390000	1.7622424900	2	22032018	91345
3.5720048830	0.0600000000	240.0000000000	0.1904890000	-0.0216530000	1.7510710000	1.7615347168	2	22032018	91351
3.5720029300	0.0600000000	245.0000000000	0.1891360000	-0.0210470000	1.7517790000	1.7620854314	2	22032018	91357
3.5720031740	0.0600000000	250.0000000000	0.1880520000	-0.0203190000	1.7514450000	1.7616287930	2	22032018	91402
3.5720029300	0.0600000000	255.0000000000	0.1871460000	-0.0195420000	1.7521170000	1.7621916742	2	22032018	91408
3.5720048830	0.0600000000	260.0000000000	0.1863390000	-0.0185840000	1.7517280000	1.7617089924	2	22032018	91413
3.5720043950	0.0600000000	265.0000000000	0.1854600000	-0.0176070000	1.7523800000	1.7622545453	2	22032018	91419
3.5720080570	0.0600000000	270.0000000000	0.1850830000	-0.0166260000	1.7518700000	1.7616982255	2	22032018	91425
3.5720043950	0.0600000000	275.0000000000	0.1846840000	-0.0156920000	1.7524620000	1.7622364995	2	22032018	91430
3.5720031740	0.0600000000	280.0000000000	0.1845410000	-0.0148060000	1.7519380000	1.7616927525	2	22032018	91436
3.5720029300	0.0600000000	285.0000000000	0.1839280000	-0.0140860000	1.7525250000	1.7622065146	2	22032018	91441
3.5720031740	0.0600000000	290.0000000000	0.1837400000	-0.0131860000	1.7520970000	1.7617542835	2	22032018	91447
3.5720061040	0.0600000000	295.0000000000	0.1836540000	-0.0122510000	1.7526600000	1.7622984862	2	22032018	91452
3.5720080570	0.0600000000	300.0000000000	0.1832410000	-0.0112890000	1.7523990000	1.7619894894	2	22032018	91458
3.5720043950	0.0600000000	305.0000000000	0.1833490000	-0.0103130000	1.7529440000	1.7625367743	2	22032018	91504
3.5720000000	0.0600000000	310.0000000000	0.1835470000	-0.0093650000	1.7525450000	1.7621552660	2	22032018	91509
3.5720043950	0.0600000000	315.0000000000	0.1837100000	-0.0082880000	1.7531380000	1.7627566202	2	22032018	91515
3.5720031740	0.0600000000	320.0000000000	0.1839910000	-0.0073650000	1.7526540000	1.7623004781	2	22032018	91520
3.5720061040	0.0600000000	325.0000000000	0.1840860000	-0.0061100000	1.7532720000	1.7629202176	2	22032018	91526
3.5720063480	0.0600000000	330.0000000000	0.1845660000	-0.0052460000	1.7527930000	1.7624912566	2	22032018	91532
3.5719965820	0.0600000000	335.0000000000	0.1849140000	-0.0040870000	1.7533870000	1.7631153855	2	22032018	91537
3.5720031740	0.0600000000	340.0000000000	0.1860190000	-0.0030810000	1.7528700000	1.7627154614	2	22032018	91543
3.5720043950	0.0600000000	345.0000000000	0.1872840000	-0.0021190000	1.7532100000	1.7631860625	2	22032018	91548
3.5720048830	0.0600000000	350.0000000000	0.1884940000	-0.0012090000	1.7524470000	1.7625555133	2	22032018	91554
3.5720061040	0.0600000000	355.0000000000	0.1899260000	0.0002300000	1.7527490000	1.7630090741	2	22032018	91559
3.5720063480	0.0600000000	360.0000000000	0.1905430000	0.0006980000	1.7524100000	1.7627387583	2	22032018	91605
3.5719980470	0.0900000000	5.0000000000	0.2939500000	0.0071040000	1.7547440000	1.7792086935	3	22032018	91108
3.5720063480	0.0900000000	10.0000000000	0.2954850000	0.0074320000	1.7537000000	1.7784347921	3	22032018	91114
3.5719980470	0.0900000000	15.0000000000	0.2967880000	0.0077860000	1.7543140000	1.7792586516	3	22032018	91120
3.5720080570	0.0900000000	20.0000000000	0.2981190000	0.0080340000	1.7532390000	1.7784224679	3	22032018	91125
3.5719980470	0.0900000000	25.0000000000	0.2990720000	0.0075970000	1.7539900000	1.7793208524	3	22032018	91131
3.5720080570	0.0900000000	30.0000000000	0.3005990000	0.0079540000	1.7529190000	1.7785241200	3	22032018	91137
3.5720012210	0.0900000000	35.0000000000	0.3013400000	0.0074010000	1.7537210000	1.7794375281	3	22032018	91142
3.5720095210	0.0900000000	40.0000000000	0.3027220000	0.0074780000	1.7527700000	1.7787352818	3	22032018	91148
3.5720012210	0.0900000000	45.0000000000	0.3041910000	0.0078470000	1.7532540000	1.7794643375	3	22032018	91153
3.5720095210	0.0900000000	50.0000000000	0.3047580000	0.0069750000	1.7525500000	1.7788641296	3	22032018	91159
3.5720029300	0.0900000000	55.0000000000	0.3052370000	0.0061420000	1.7534530000	1.7798327937	3	22032018	91204
3.5720048830	0.0900000000	60.0000000000	0.3066990000	0.0062020000	1.7523050000	1.7789534998	3	22032018	91210
3.5720029300	0.0900000000	65.0000000000	0.3069720000	0.0052600000	1.7531950000	1.7798742047	3	22032018	91216
3.5720112300	0.0900000000	70.0000000000	0.3081470000	0.0049840000	1.7523090000	1.7792038234	3	22032018	91221
3.5720029300	0.0900000000	75.0000000000	0.3091830000	0.0046320000	1.7526190000	1.7796878777	3	22032018	91227
3.5720048830	0.0900000000	80.0000000000	0.3092940000	0.0037280000	1.7520880000	1.7791821256	3	22032018	91232
3.5720029300	0.0900000000	85.0000000000	0.3096530000	0.0028550000	1.7527190000	1.7798643275	3	22032018	91238
3.5720080570	0.0900000000	90.0000000000	0.3100280000	0.0020250000	1.7520010000	1.7792214492	3	22032018	91244
3.5720029300	0.0900000000	95.0000000000	0.3107570000	0.0010400000	1.7524520000	1.7797918437	3	22032018	91249
3.5720048830	0.0900000000	100.0000000000	0.3111740000	-0.0000590000	1.7516920000	1.7791161077	3	22032018	91255
3.5720029300	0.0900000000	105.0000000000	0.3118610000	-0.0010760000	1.7518960000	1.7794375617	3	22032018	91300
3.5720031740	0.0900000000	110.0000000000	0.3123330000	-0.0017760000	1.7510820000	1.7787195473	3	22032018	91306
3.5720043950	0.0900000000	115.0000000000	0.3124920000	-0.0024060000	1.7516420000	1.7792995068	3	22032018	91312
3.5720048830	0.0900000000	120.0000000000	0.3133770000	-0.0037320000	1.7504950000	1.7783283772	3	22032018	91317
3.5720043950	0.0900000000	125.0000000000	0.3130580000	-0.0040820000	1.7511220000	1.7788901689	3	22032018	91323
3.5720112300	0.0900000000	130.0000000000	0.3131540000	-0.0049980000	1.7503930000	1.7781917957	3	22032018	91328
3.5719997560	0.0900000000	135.0000000000	0.3133470000	-0.0061470000	1.7508560000	1.7786851494	3	22032018	91334
3.5720095210	0.0900000000	140.0000000000	0.3130260000	-0.0068030000	1.7500810000	1.7778681234	3	22032018	91340
3.5720029300	0.0900000000	145.0000000000	0.3129360000	-0.0084940000	1.7507230000	1.7784915268	3	22032018	91345
3.5720048830	0.0900000000	150.0000000000	0.3124180000	-0.0095580000	1.7498160000	1.7775129805	3	22032018	91351
3.5720029300	0.0900000000	155.0000000000	0.3118460000	-0.0109920000	1.7504770000	1.7780715619	3	22032018	91357
3.5720031740	0.0900000000	160.0000000000	0.3112550000	-0.0119920000	1.7499270000	1.7774329772	3	22032018	91402
3.5720029300	0.0900000000	165.0000000000	0.3103930000	-0.0131130000	1.7505250000	1.7778789444	3	22032018	91408
3.5720048830	0.0900000000	170.0000000000	0.3093720000	-0.0140230000	1.7501890000	1.7773770603	3	22032018	91413
3.5720043950	0.0900000000	175.0000000000	0.3083840000	-0.0151900000	1.7507630000	1.7777802197	3	22032018	91419
3.5720080570	0.0900000000	180.0000000000	0.3073390000	-0.0154990000	1.7503310000	1.7771764374	3	22032018	91425
3.5720043950	0.0900000000	185.0000000000	0.3062710000	-0.0159880000	1.7509350000	1.7775913242	3	22032018	91430
3.5720031740	0.0900000000	190.0000000000	0.3053770000	-0.0163500000	1.7502810000	1.7767965594	3	22032018	91436
3.5720029300	0.0900000000	195.0000000000	0.3044370000	-0.0167570000	1.7507790000	1.7771296494	3	22032018	91441
3.5720031740	0.0900000000	200.0000000000	0.3034390000	-0.0169690000	1.7501400000	1.7763313861	3	22032018	91447
3.5720061040	0.0900000000	205.0000000000	0.3021910000	-0.0171250000	1.7508090000	1.7767793393	3	22032018	91452
3.5720080570	0.0900000000	210.0000000000	0.3011810000	-0.0172350000	1.7502950000	1.7761023695	3	22032018	91458
3.5720043950	0.0900000000	215.0000000000	0.2999850000	-0.0172810000	1.7508860000	1.7764828787	3	22032018	91504
3.5720000000	0.0900000000	220.0000000000	0.2988560000	-0.0170460000	1.7504190000	1.7758299892	3	22032018	91509
3.5720043950	0.0900000000	225.0000000000	0.2975620000	-0.0168510000	1.7511860000	1.7763669403	3	22032018	91515
3.5720031740	0.0900000000	230.0000000000	0.2963790000	-0.0166070000	1.7506700000	1.7756581183	3	22032018	91520
3.5720061040	0.0900000000	235.0000000000	0.2949150000	-0.0161360000	1.7515450000	1.7762728154	3	22032018	91526
3.5720063480	0.0900000000	240.0000000000	0.2936990000	-0.0157340000	1.7510710000	1.7756002671	3	22032018	91532
3.5719965820	0.0900000000	245.0000000000	0.2925520000	-0.0150630000	1.7520400000	1.7763608103	3	22032018	91537
3.5720031740	0.0900000000	250.0000000000	0.2914110000	-0.0143890000	1.7516350000	1.7757681683	3	22032018	91543
3.5720043950	0.0900000000	255.0000000000	0.2901850000	-0.0135790000	1.7524410000	1.7763561529	3	22032018	91548
3.5720048830	0.0900000000	260.0000000000	0.2891450000	-0.0127850000	1.7519460000	1.7756922803	3	22032018	91554
3.5720061040	0.0900000000	265.0000000000	0.2880070000	-0.0117670000	1.7529090000	1.7764505219	3	22032018	91559
3.5720063480	0.0900000000	270.0000000000	0.2872830000	-0.0116970000	1.7523900000	1.7758206706	3	22032018	91605
3.5720043950	0.0900000000	275.0000000000	0.2863270000	-0.0112990000	1.7533300000	1.7765913732	3	22032018	91610
3.5720031740	0.0900000000	280.0000000000	0.2857200000	-0.0105860000	1.7528440000	1.7760095918	3	22032018	91616
3.5720043950	0.0900000000	285.0000000000	0.2852970000	-0.0092450000	1.7537030000	1.7767819395	3	22032018	91622
3.5720063480	0.0900000000	290.0000000000	0.2852310000	-0.0080570000	1.7530150000	1.7760864925	3	22032018	91627
3.5719997560	0.0900000000	295.0000000000	0.2851510000	-0.0066740000	1.7537810000	1.7768239730	3	22032018	91633
3.5720031740	0.0900000000	300.0000000000	0.2849110000	-0.0053770000	1.7534670000	1.7764711397	3	22032018	91638
3.5720043950	0.0900000000	305.0000000000	0.2852190000	-0.0040140000	1.7540480000	1.7770904244	3	22032018	91644
3.5720048830	0.0900000000	310.0000000000	0.2859220000	-0.0027650000	1.7535520000	1.7767114712	3	22032018	91650
3.5720043950	0.0900000000	315.0000000000	0.2860240000	-0.0014050000	1.7542030000	1.7773688047	3	22032018	91655
3.5720031740	0.0900000000	320.0000000000	0.2863840000	-0.0003870000	1.7537780000	1.7770068144	3	22032018	91701
3.5720012210	0.0900000000	325.0000000000	0.2868770000	0.0005730000	1.7544470000	1.7777466122	3	22032018	91706
3.5720095210	0.0900000000	330.0000000000	0.2874540000	0.0016870000	1.7540090000	1.7774082874	3	22032018	91712
3.5720029300	0.0900000000	335.0000000000	0.2881010000	0.0024790000	1.7546260000	1.7781228111	3	22032018	91718
3.5720080570	0.0900000000	340.0000000000	0.2888430000	0.0032090000	1.7541550000	1.7777796096	3	22032018	91017
3.5720095210	0.0900000000	340.0000000000	0.2888560000	0.0033370000	1.7541970000	1.7778233993	3	22032018	91723
3.5719965820	0.0900000000	345.0000000000	0.2897070000	0.0041540000	1.7552180000	1.7789709467	3	22032018	91046
3.5720144040	0.0900000000	350.0000000000	0.2905130000	0.0050500000	1.7541110000	1.7780125719	3	22032018	91052
3.5719934080	0.0900000000	355.0000000000	0.2914580000	0.0057040000	1.7551000000	1.7791448259	3	22032018	91057
3.5720095210	0.0900000000	360.0000000000	0.2930890000	0.0080570000	1.7538550000	1.7781938697	3	22032018	91103
3.5720080570	0.1200000000	0.0000000000	0.4266810000	0.0214540000	1.7675610000	1.8184578188	4	22032018	91244
3.5720029300	0.1200000000	5.0000000000	0.4278030000	0.0222470000	1.7682610000	1.8194112509	4	22032018	91249
3.5720048830	0.1200000000	10.0000000000	0.4291220000	0.0227010000	1.7672470000	1.8187421437	4	22032018	91255
3.5720029300	0.1200000000	15.0000000000	0.4305050000	0.0232930000	1.7677220000	1.8195379051	4	22032018	91300
3.5720031740	0.1200000000	20.0000000000	0.4318400000	0.0232520000	1.7667150000	1.8188755681	4	22032018	91306
3.5720043950	0.1200000000	25.0000000000	0.4331330000	0.0231030000	1.7671860000	1.8196385089	4	22032018	91312
3.5720048830	0.1200000000	30.0000000000	0.4349110000	0.0236700000	1.7658890000	1.8188105473	4	22032018	91317
3.5720043950	0.1200000000	35.0000000000	0.4357180000	0.0230630000	1.7664910000	1.8195803172	4	22032018	91323
3.5720112300	0.1200000000	40.0000000000	0.4369510000	0.0227650000	1.7655020000	1.8189122391	4	22032018	91328
3.5719997560	0.1200000000	45.0000000000	0.4384210000	0.0229000000	1.7657640000	1.8195218842	4	22032018	91334
3.5720095210	0.1200000000	50.0000000000	0.4392680000	0.0222350000	1.7649040000	1.8188834213	4	22032018	91340
3.5720029300	0.1200000000	55.0000000000	0.4409590000	0.0223740000	1.7650680000	1.8194533465	4	22032018	91345
3.5720048830	0.1200000000	60.0000000000	0.4420420000	0.0218180000	1.7638550000	1.8185328196	4	22032018	91351
3.5720029300	0.1200000000	65.0000000000	0.4435140000	0.0215320000	1.7639840000	1.8190128772	4	22032018	91357
3.5720031740	0.1200000000	70.0000000000	0.4445660000	0.0208890000	1.7629900000	1.8182983855	4	22032018	91402
3.5720029300	0.1200000000	75.0000000000	0.4454280000	0.0202690000	1.7633620000	1.8188629631	4	22032018	91408
3.5720048830	0.1200000000	80.0000000000	0.4460330000	0.0194520000	1.7626930000	1.8183537691	4	22032018	91413
3.5720043950	0.1200000000	85.0000000000	0.4478970000	0.0186710000	1.7622210000	1.8183462766	4	22032018	91419
3.5720080570	0.1200000000	90.0000000000	0.4479590000	0.0176500000	1.7617450000	1.8178900498	4	22032018	91425
3.5720043950	0.1200000000	95.0000000000	0.4483440000	0.0167450000	1.7624430000	1.8186528161	4	22032018	91430
3.5720031740	0.1200000000	100.0000000000	0.4483880000	0.0160650000	1.7617410000	1.8179772369	4	22032018	91436
3.5720029300	0.1200000000	105.0000000000	0.4495230000	0.0149830000	1.7616860000	1.8181949787	4	22032018	91441
3.5720031740	0.1200000000	110.0000000000	0.4496730000	0.0140610000	1.7608500000	1.8174147136	4	22032018	91447
3.5720061040	0.1200000000	115.0000000000	0.4495670000	0.0132360000	1.7616080000	1.8181167248	4	22032018	91452
3.5720080570	0.1200000000	120.0000000000	0.4505160000	0.0118340000	1.7603050000	1.8170796358	4	22032018	91458
3.5720043950	0.1200000000	125.0000000000	0.4501860000	0.0108800000	1.7608870000	1.8175557311	4	22032018	91504
3.5720000000	0.1200000000	130.0000000000	0.4499700000	0.0099770000	1.7602500000	1.8168799091	4	22032018	91509
3.5720043950	0.1200000000	135.0000000000	0.4500310000	0.0087040000	1.7606330000	1.8172595360	4	22032018	91515
3.5720031740	0.1200000000	140.0000000000	0.4496260000	0.0078720000	1.7599340000	1.8164782390	4	22032018	91520
3.5720061040	0.1200000000	145.0000000000	0.4497010000	0.0058960000	1.7600680000	1.8166191447	4	22032018	91526
3.5720063480	0.1200000000	150.0000000000	0.4488880000	0.0050760000	1.7596240000	1.8159853589	4	22032018	91532
3.5719965820	0.1200000000	155.0000000000	0.4483050000	0.0034520000	1.7602470000	1.8164412433	4	22032018	91537
3.5720031740	0.1200000000	160.0000000000	0.4471780000	0.0026310000	1.7600070000	1.8159294386	4	22032018	91543
3.5720043950	0.1200000000	165.0000000000	0.4458750000	0.0020140000	1.7610910000	1.8166590440	4	22032018	91548
3.5720048830	0.1200000000	170.0000000000	0.4446130000	0.0014140000	1.7606890000	1.8159593811	4	22032018	91554
3.5720061040	0.1200000000	175.0000000000	0.4433700000	-0.0000680000	1.7616760000	1.8166120363	4	22032018	91559
3.5720063480	0.1200000000	180.0000000000	0.4426270000	-0.0002140000	1.7607460000	1.8155288991	4	22032018	91605
3.5720043950	0.1200000000	185.0000000000	0.4417740000	-0.0008050000	1.7614060000	1.8159614566	4	22032018	91610
3.5720031740	0.1200000000	190.0000000000	0.4404960000	-0.0010560000	1.7607700000	1.8150341137	4	22032018	91616
3.5720043950	0.1200000000	195.0000000000	0.4387130000	-0.0011020000	1.7621460000	1.8159374538	4	22032018	91622
3.5720063480	0.1200000000	200.0000000000	0.4373800000	-0.0012250000	1.7614720000	1.8149618100	4	22032018	91627
3.5719997560	0.1200000000	205.0000000000	0.4360860000	-0.0015980000	1.7622480000	1.8154039679	4	22032018	91633
3.5720031740	0.1200000000	210.0000000000	0.4346410000	-0.0019200000	1.7618750000	1.8146955670	4	22032018	91638
3.5720043950	0.1200000000	215.0000000000	0.4332880000	-0.0019990000	1.7625910000	1.8150673597	4	22032018	91644
3.5720048830	0.1200000000	220.0000000000	0.4319690000	-0.0017960000	1.7620620000	1.8142389408	4	22032018	91650
3.5720043950	0.1200000000	225.0000000000	0.4304240000	-0.0017840000	1.7628560000	1.8146430170	4	22032018	91655
3.5720031740	0.1200000000	230.0000000000	0.4289720000	-0.0013470000	1.7625920000	1.8140422679	4	22032018	91701
3.5720012210	0.1200000000	235.0000000000	0.4277660000	-0.0010640000	1.7633980000	1.8145405449	4	22032018	91706
3.5720095210	0.1200000000	240.0000000000	0.4263390000	-0.0005420000	1.7630450000	1.8138613257	4	22032018	91712
3.5720029300	0.1200000000	245.0000000000	0.4250930000	-0.0000240000	1.7639770000	1.8144748319	4	22032018	91718
3.5720080570	0.1200000000	250.0000000000	0.4239290000	0.0006160000	1.7636640000	1.8138982555	4	22032018	91017
3.5720095210	0.1200000000	250.0000000000	0.4238830000	0.0006120000	1.7636410000	1.8138651408	4	22032018	91723
3.5719965820	0.1200000000	255.0000000000	0.4227880000	0.0013040000	1.7651020000	1.8150307060	4	22032018	91046
3.5720144040	0.1200000000	260.0000000000	0.4218450000	0.0021100000	1.7641310000	1.8138676471	4	22032018	91052
3.5719934080	0.1200000000	265.0000000000	0.4207710000	0.0029410000	1.7656780000	1.8151241510	4	22032018	91057
3.5720095210	0.1200000000	270.0000000000	0.4198290000	0.0036750000	1.7651630000	1.8144063248	4	22032018	91103
3.5719980470	0.1200000000	275.0000000000	0.4190990000	0.0048950000	1.7664040000	1.8154478852	4	22032018	91108
3.5720063480	0.1200000000	280.0000000000	0.4185560000	0.0061990000	1.7657960000	1.8147349852	4	22032018	91114
3.5719980470	0.1200000000	285.0000000000	0.4181510000	0.0074350000	1.7669490000	1.8157682414	4	22032018	91120
3.5720080570	0.1200000000	290.0000000000	0.4181230000	0.0086220000	1.7661580000	1.8149973176	4	22032018	91125
3.5719980470	0.1200000000	295.0000000000	0.4182750000	0.0099850000	1.7670230000	1.8158810419	4	22032018	91131
3.5720080570	0.1200000000	300.0000000000	0.4185710000	0.0112550000	1.7663040000	1.8152570555	4	22032018	91137
3.5720012210	0.1200000000	305.0000000000	0.4188770000	0.0124220000	1.7669980000	1.8160105119	4	22032018	91142
3.5720095210	0.1200000000	310.0000000000	0.4192900000	0.0135220000	1.7663990000	1.8155308799	4	22032018	91148
3.5720012210	0.1200000000	315.0000000000	0.4197670000	0.0145950000	1.7673460000	1.8165707341	4	22032018	91153
3.5720095210	0.1200000000	320.0000000000	0.4204970000	0.0155500000	1.7664540000	1.8158797492	4	22032018	91159
3.5720029300	0.1200000000	325.0000000000	0.4210190000	0.0164620000	1.7674670000	1.8169941089	4	22032018	91204
3.5720048830	0.1200000000	330.0000000000	0.4218250000	0.0173850000	1.7666400000	1.8163852726	4	22032018	91210
3.5720029300	0.1200000000	335.0000000000	0.4227220000	0.0180530000	1.7674610000	1.8173987418	4	22032018	91216
3.5720112300	0.1200000000	340.0000000000	0.4234410000	0.0187490000	1.7668670000	1.8169955424	4	22032018	91221
3.5720029300	0.1200000000	345.0000000000	0.4241490000	0.0195850000	1.7678630000	1.8181379302	4	22032018	91227
3.5720048830	0.1200000000	350.0000000000	0.4249820000	0.0201600000	1.7672840000	1.8177758010	4	22032018	91232
3.5720029300	0.1200000000	355.0000000000	0.4257110000	0.0209010000	1.7680750000	1.8187237044	4	22032018	91238
3.5720043950	0.1500000000	5.0000000000	0.5783090000	0.0188730000	1.7784940000	1.8702508916	5	22032018	91610
3.5720031740	0.1500000000	10.0000000000	0.5798350000	0.0194640000	1.7771990000	1.8694982643	5	22032018	91616
3.5720043950	0.1500000000	15.0000000000	0.5817880000	0.0199820000	1.7771540000	1.8700676183	5	22032018	91622
3.5720063480	0.1500000000	20.0000000000	0.5831450000	0.0195250000	1.7759570000	1.8693481705	5	22032018	91627
3.5719997560	0.1500000000	25.0000000000	0.5847090000	0.0190650000	1.7763710000	1.8702251251	5	22032018	91633
3.5720031740	0.1500000000	30.0000000000	0.5868120000	0.0198470000	1.7745420000	1.8691553003	5	22032018	91638
3.5720043950	0.1500000000	35.0000000000	0.5883470000	0.0194560000	1.7745650000	1.8696554944	5	22032018	91644
3.5720048830	0.1500000000	40.0000000000	0.5892410000	0.0182180000	1.7740910000	1.8694747198	5	22032018	91650
3.5720043950	0.1500000000	45.0000000000	0.5910120000	0.0186170000	1.7738050000	1.8697662835	5	22032018	91655
3.5720031740	0.1500000000	50.0000000000	0.5926760000	0.0190190000	1.7722100000	1.8687843234	5	22032018	91701
3.5720012210	0.1500000000	55.0000000000	0.5937400000	0.0184210000	1.7727930000	1.8696688321	5	22032018	91706
3.5720095210	0.1500000000	60.0000000000	0.5952730000	0.0181670000	1.7711320000	1.8685792854	5	22032018	91712
3.5720029300	0.1500000000	65.0000000000	0.5961320000	0.0171430000	1.7720070000	1.8696727125	5	22032018	91718
3.5720080570	0.1500000000	70.0000000000	0.5968020000	0.0161830000	1.7712630000	1.8691728470	5	22032018	91017
3.5720095210	0.1500000000	70.0000000000	0.5970560000	0.0162930000	1.7709090000	1.8689194780	5	22032018	91723
3.5719965820	0.1500000000	75.0000000000	0.5982070000	0.0154890000	1.7719440000	1.8702612286	5	22032018	91046
3.5720144040	0.1500000000	80.0000000000	0.5996610000	0.0148390000	1.7693620000	1.8682760497	5	22032018	91052
3.5719934080	0.1500000000	85.0000000000	0.6004590000	0.0135970000	1.7705280000	1.8696270451	5	22032018	91057
3.5720095210	0.1500000000	90.0000000000	0.6048500000	0.0123490000	1.7656760000	1.8664425406	5	22032018	91103
3.5719980470	0.1500000000	95.0000000000	0.6019100000	0.0113210000	1.7695960000	1.8691960348	5	22032018	91108
3.5720063480	0.1500000000	100.0000000000	0.6025850000	0.0100270000	1.7680330000	1.8679266345	5	22032018	91114
3.5719980470	0.1500000000	105.0000000000	0.6030210000	0.0086690000	1.7686570000	1.8686511343	5	22032018	91120
3.5720080570	0.1500000000	110.0000000000	0.6032120000	0.0070460000	1.7674520000	1.8675655103	5	22032018	91125
3.5719980470	0.1500000000	115.0000000000	0.6027280000	0.0062410000	1.7690320000	1.8689018725	5	22032018	91131
3.5720080570	0.1500000000	120.0000000000	0.6031290000	0.0045530000	1.7675150000	1.8675905857	5	22032018	91137
3.5720012210	0.1500000000	125.0000000000	0.6024090000	0.0039060000	1.7690960000	1.8688532627	5	22032018	91142
3.5720095210	0.1500000000	130.0000000000	0.6022430000	0.0024810000	1.7680060000	1.8677655106	5	22032018	91148
3.5720012210	0.1500000000	135.0000000000	0.6022360000	0.0008340000	1.7686640000	1.8683846606	5	22032018	91153
3.5720095210	0.1500000000	140.0000000000	0.6012310000	0.0005800000	1.7680980000	1.8675249903	5	22032018	91159
3.5720029300	0.1500000000	145.0000000000	0.6002790000	-0.0000690000	1.7697670000	1.8687991109	5	22032018	91204
3.5720048830	0.1500000000	150.0000000000	0.5998110000	-0.0014720000	1.7685400000	1.8674873853	5	22032018	91210
3.5720029300	0.1500000000	155.0000000000	0.5988360000	-0.0017580000	1.7698670000	1.8684316533	5	22032018	91216
3.5720112300	0.1500000000	160.0000000000	0.5981930000	-0.0030010000	1.7688820000	1.8672941389	5	22032018	91221
3.5720029300	0.1500000000	165.0000000000	0.5975660000	-0.0041080000	1.7696740000	1.8678458358	5	22032018	91227
3.5720048830	0.1500000000	170.0000000000	0.5965880000	-0.0043760000	1.7687410000	1.8666497037	5	22032018	91232
3.5720029300	0.1500000000	175.0000000000	0.5955800000	-0.0046570000	1.7696400000	1.8671804823	5	22032018	91238
3.5720080570	0.1500000000	180.0000000000	0.5945020000	-0.0052750000	1.7688640000	1.8661029725	5	22032018	91244
3.5720029300	0.1500000000	185.0000000000	0.5933090000	-0.0060220000	1.7698980000	1.8667058591	5	22032018	91249
3.5720048830	0.1500000000	190.0000000000	0.5916460000	-0.0065610000	1.7695280000	1.8658288718	5	22032018	91255
3.5720029300	0.1500000000	195.0000000000	0.5902310000	-0.0074670000	1.7703960000	1.8662074875	5	22032018	91300
3.5720031740	0.1500000000	200.0000000000	0.5888110000	-0.0082980000	1.7697070000	1.8651086071	5	22032018	91306
3.5720043950	0.1500000000	205.0000000000	0.5870310000	-0.0092670000	1.7708150000	1.8656036654	5	22032018	91312
3.5720048830	0.1500000000	210.0000000000	0.5851290000	-0.0099420000	1.7705350000	1.8647436757	5	22032018	91317
3.5720043950	0.1500000000	215.0000000000	0.5833480000	-0.0101700000	1.7715700000	1.8651698536	5	22032018	91323
3.5720112300	0.1500000000	220.0000000000	0.5815200000	-0.0101580000	1.7710760000	1.8641295269	5	22032018	91328
3.5719997560	0.1500000000	225.0000000000	0.5796070000	-0.0100480000	1.7725530000	1.8649368286	5	22032018	91334
3.5720095210	0.1500000000	230.0000000000	0.5778160000	-0.0097570000	1.7719450000	1.8638013875	5	22032018	91340
3.5720029300	0.1500000000	235.0000000000	0.5758570000	-0.0090710000	1.7737880000	1.8649443521	5	22032018	91345
3.5720048830	0.1500000000	240.0000000000	0.5741460000	-0.0082850000	1.7734040000	1.8640477509	5	22032018	91351
3.5720029300	0.1500000000	245.0000000000	0.5724420000	-0.0075420000	1.7749150000	1.8649584398	5	22032018	91357
3.5720031740	0.1500000000	250.0000000000	0.5710200000	-0.0067030000	1.7747000000	1.8643145820	5	22032018	91402
3.5720029300	0.1500000000	255.0000000000	0.5698800000	-0.0055470000	1.7759630000	1.8651644863	5	22032018	91408
3.5720048830	0.1500000000	260.0000000000	0.5688770000	-0.0044030000	1.7757460000	1.8646485685	5	22032018	91413
3.5720043950	0.1500000000	265.0000000000	0.5681510000	-0.0034220000	1.7768420000	1.8654690461	5	22032018	91419
3.5720080570	0.1500000000	270.0000000000	0.5675090000	-0.0022540000	1.7763810000	1.8648327010	5	22032018	91425
3.5720043950	0.1500000000	275.0000000000	0.5670200000	-0.0010220000	1.7772790000	1.8655383590	5	22032018	91430
3.5720031740	0.1500000000	280.0000000000	0.5665820000	-0.0000100000	1.7766600000	1.8648152505	5	22032018	91436
3.5720029300	0.1500000000	285.0000000000	0.5661690000	0.0005300000	1.7778050000	1.8657808648	5	22032018	91441
3.5720031740	0.1500000000	290.0000000000	0.5658590000	0.0016050000	1.7773820000	1.8652843638	5	22032018	91447
3.5720061040	0.1500000000	295.0000000000	0.5657610000	0.0029650000	1.7783880000	1.8662149337	5	22032018	91452
3.5720080570	0.1500000000	300.0000000000	0.5656880000	0.0037040000	1.7782300000	1.8660435595	5	22032018	91458
3.5720043950	0.1500000000	305.0000000000	0.5659150000	0.0050690000	1.7792100000	1.8670494654	5	22032018	91504
3.5720000000	0.1500000000	310.0000000000	0.5663070000	0.0063580000	1.7786360000	1.8666253140	5	22032018	91509
3.5720043950	0.1500000000	315.0000000000	0.5667730000	0.0073030000	1.7796580000	1.8677439772	5	22032018	91515
3.5720031740	0.1500000000	320.0000000000	0.5673940000	0.0085190000	1.7791140000	1.8674193824	5	22032018	91520
3.5720061040	0.1500000000	325.0000000000	0.5679260000	0.0095910000	1.7801230000	1.8685475172	5	22032018	91526
3.5720063480	0.1500000000	330.0000000000	0.5687280000	0.0107660000	1.7795170000	1.8682205967	5	22032018	91532
3.5719965820	0.1500000000	335.0000000000	0.5696170000	0.0118160000	1.7804510000	1.8693873082	5	22032018	91537
3.5720031740	0.1500000000	340.0000000000	0.5710580000	0.0130510000	1.7793660000	1.8688020039	5	22032018	91543
3.5720043950	0.1500000000	345.0000000000	0.5727000000	0.0144670000	1.7795620000	1.8695014030	5	22032018	91548
3.5720048830	0.1500000000	350.0000000000	0.5742360000	0.0155710000	1.7780460000	1.8685387387	5	22032018	91554
3.5720061040	0.1500000000	355.0000000000	0.5761760000	0.0170380000	1.7780040000	1.8691086914	5	22032018	91559
3.5720063480	0.1500000000	360.0000000000	0.5771300000	0.0176960000	1.7776780000	1.8690990495	5	22032018	91605
